wavelength,intensity
1.0200,0.0211
1.0210,0.0260
1.0220,0.0310
1.0230,0.0355
1.0240,0.0421
1.0250,0.0499
1.0260,0.0656
1.0270,0.0842
1.0280,0.1005
1.0290,0.1307
1.0300,0.1701
1.0310,0.2277
1.0320,0.3062
1.0330,0.4055
1.0340,0.4914
1.0350,0.6521
1.0360,0.7901
1.0370,0.8855
1.0380,1.0000
1.0390,1.0671
1.0400,1.1291
1.0410,1.1142
1.0420,1.1208
1.0430,1.1056
1.0440,1.0950
1.0450,1.0804
1.0460,1.0729
1.0470,1.0374
1.0480,0.9787
1.0490,0.9645
1.0500,0.9393
1.0510,0.9263
1.0520,0.8664
1.0530,0.8374
1.0540,0.8434
1.0550,0.8208
1.0560,0.7827
1.0570,0.7529
1.0580,0.7238
1.0590,0.6995
1.0600,0.6750
1.0610,0.6495
1.0620,0.6294
1.0630,0.6126
1.0640,0.5962
1.0650,0.5797
1.0660,0.5624
1.0670,0.5406
1.0680,0.5143
1.0690,0.4926
1.0700,0.4803
1.0710,0.4711
1.0720,0.4581
1.0730,0.4408
1.0740,0.4220
1.0750,0.4052
1.0760,0.3917
1.0770,0.3803
1.0780,0.3686
1.0790,0.3563
1.0800,0.3447
1.0810,0.3345
1.0820,0.3254
1.0830,0.3168
1.0840,0.3081
1.0850,0.2985
1.0860,0.2874
1.0870,0.2757
1.0880,0.2647
1.0890,0.2554
1.0900,0.2476
1.0910,0.2408
1.0920,0.2343
1.0930,0.2275
1.0940,0.2203
1.0950,0.2129
1.0960,0.2058
1.0970,0.1994
1.0980,0.1939
1.0990,0.1891
1.1000,0.1847
1.1010,0.1802
1.1020,0.1754
1.1030,0.1703
1.1040,0.1649
1.1050,0.1594
1.1060,0.1540
1.1070,0.1488
1.1080,0.1441
1.1090,0.1400
1.1100,0.1365
1.1110,0.1337
1.1120,0.1314
1.1130,0.1293
1.1140,0.1271
1.1150,0.1244
1.1160,0.1210
1.1170,0.1167
1.1180,0.1115
1.1190,0.1062
1.1200,0.1018
1.1210,0.0992
1.1220,0.0980
1.1230,0.0975
1.1240,0.0963
1.1250,0.0939
1.1260,0.0902
1.1270,0.0862
1.1280,0.0829
1.1290,0.0810
1.1300,0.0804
1.1310,0.0803
1.1320,0.0797
1.1330,0.0777
1.1340,0.0746
1.1350,0.0711
1.1360,0.0681
1.1370,0.0664
1.1380,0.0657
1.1390,0.0655
1.1400,0.0650
1.1410,0.0636
1.1420,0.0616
1.1430,0.0596
1.1440,0.0583
1.1450,0.0579
1.1460,0.0577
1.1470,0.0569
1.1480,0.0549
1.1490,0.0517
1.1500,0.0484
1.1510,0.0459
1.1520,0.0447
1.1530,0.0441
1.1540,0.0437
1.1550,0.0431
1.1560,0.0426
1.1570,0.0424
1.1580,0.0423
1.1590,0.0416
1.1600,0.0399
1.1610,0.0376
1.1620,0.0359
1.1630,0.0353
1.1640,0.0354
1.1650,0.0351
1.1660,0.0341
1.1670,0.0328
1.1680,0.0323
1.1690,0.0322
1.1700,0.0317
1.1710,0.0311
1.1720,0.0308
1.1730,0.0305
1.1740,0.0291
1.1750,0.0276
1.1760,0.0268
1.1770,0.0259
1.1780,0.0249
1.1790,0.0246
1.1800,0.0268
